# 
# 
# Curve Name:
#   !PHBH
# Curve Values:
#        Index           t          Ts          Tr       Value
#                      [s]        [°C]        [°C]         [%]
           0           0     32.1246          25         100
           6           6     33.1247          26     100.067
          12          12     33.9793          27     100.308
          18          18     34.7981          28     100.348
          24          24     35.5863          29      100.36
          30          30      36.366          30     100.367
          36          36     37.1336          31     100.376
          42          42     37.8965          32     100.385
          48          48     38.6716          33     100.391
          54          54     39.4635          34     100.399
          60          60     40.2391          35     100.408
          66          66      41.029          36     100.414
          72          72     41.8255          37      100.42
          78          78     42.6211          38     100.426
          84          84     43.4248          39     100.432
          90          90     44.2314          40     100.439
          96          96     45.0443          41     100.446
         102         102     45.8574          42     100.451
         108         108     46.6791          43     100.455
         114         114     47.5149          44     100.463
         120         120     48.3474          45     100.469
         126         126     49.1815          46     100.472
         132         132     50.0217          47     100.477
         138         138     50.8713          48      100.48
         144         144     51.7236          49     100.486
         150         150     52.5633          50     100.492
         156         156     53.4176          51     100.497
         162         162     54.2713          52     100.501
         168         168     55.1212          53     100.505
         174         174     55.9801          54     100.509
         180         180     56.8384          55     100.514
         186         186     57.7036          56     100.519
         192         192     58.5718          57     100.523
         198         198     59.4432          58     100.526
         204         204       60.31          59      100.53
         210         210     61.1762          60     100.534
         216         216     62.0493          61     100.537
         222         222     62.9432          62     100.541
         228         228     63.8259          63     100.546
         234         234     64.7103          64      100.55
         240         240     65.5877          65     100.553
         246         246       66.47          66     100.556
         252         252     67.3609          67      100.56
         258         258     68.2587          68     100.563
         264         264      69.137          69     100.567
         270         270     70.0317          70      100.57
         276         276     70.9353          71     100.573
         282         282     71.8336          72     100.576
         288         288     72.7368          73      100.58
         294         294     73.6384          74     100.583
         300         300     74.5319          75     100.586
         306         306     75.4438          76      100.59
         312         312     76.3514          77     100.592
         318         318     77.2767          78     100.596
         324         324     78.1692          79       100.6
         330         330     79.1012          80     100.601
         336         336     80.0078          81     100.602
         342         342     80.9102          82     100.607
         348         348      81.826          83     100.609
         354         354     82.7501          84     100.612
         360         360     83.6618          85     100.615
         366         366     84.5701          86     100.617
         372         372     85.4963          87     100.621
         378         378     86.3988          88     100.622
         384         384     87.3096          89     100.624
         390         390     88.2304          90     100.627
         396         396     89.1551          91      100.63
         402         402     90.0497          92     100.632
         408         408     90.9745          93     100.635
         414         414     91.8744          94     100.636
         420         420     92.8004          95     100.639
         426         426     93.7259          96     100.641
         432         432     94.6506          97     100.644
         438         438     95.5693          98     100.645
         444         444      96.512          99     100.647
         450         450     97.4616         100     100.649
         456         456     98.3766         101     100.653
         462         462     99.3042         102     100.658
         468         468     100.246         103     100.659
         474         474     101.193         104      100.66
         480         480     102.132         105     100.661
         486         486     103.072         106     100.665
         492         492     103.996         107     100.669
         498         498     104.939         108      100.67
         504         504     105.876         109     100.671
         510         510     106.819         110     100.676
         516         516     107.754         111     100.674
         522         522     108.713         112     100.675
         528         528      109.65         113     100.677
         534         534     110.572         114     100.679
         540         540      111.51         115     100.681
         546         546     112.454         116     100.678
         552         552     113.394         117     100.681
         558         558     114.325         118     100.687
         564         564     115.262         119     100.688
         570         570     116.197         120     100.688
         576         576      117.15         121     100.691
         582         582     118.098         122     100.691
         588         588     119.031         123     100.691
         594         594     119.986         124     100.692
         600         600     120.938         125     100.692
         606         606     121.897         126     100.694
         612         612     122.859         127     100.694
         618         618     123.827         128     100.693
         624         624     124.771         129     100.693
         630         630     125.741         130     100.695
         636         636     126.703         131     100.695
         642         642     127.654         132     100.697
         648         648     128.602         133     100.697
         654         654     129.551         134     100.698
         660         660     130.498         135     100.694
         666         666     131.451         136     100.697
         672         672     132.406         137     100.699
         678         678     133.372         138     100.698
         684         684     134.337         139     100.699
         690         690     135.304         140     100.701
         696         696     136.306         141       100.7
         702         702     137.301         142     100.697
         708         708     138.303         143     100.698
         714         714     139.307         144     100.701
         720         720     140.323         145     100.703
         726         726     141.315         146     100.703
         732         732     142.307         147     100.704
         738         738     143.305         148     100.705
         744         744     144.303         149     100.705
         750         750     145.299         150     100.705
         756         756     146.295         151     100.707
         762         762     147.303         152     100.708
         768         768      148.29         153     100.708
         774         774     149.289         154      100.71
         780         780     150.282         155      100.71
         786         786     151.256         156     100.711
         792         792     152.254         157     100.712
         798         798     153.246         158     100.714
         804         804     154.228         159     100.713
         810         810     155.233         160     100.714
         816         816     156.226         161     100.717
         822         822      157.22         162     100.719
         828         828     158.205         163     100.719
         834         834       159.2         164     100.721
         840         840     160.206         165     100.721
         846         846     161.186         166     100.723
         852         852     162.181         167     100.725
         858         858     163.155         168     100.725
         864         864     164.148         169     100.726
         870         870     165.142         170     100.727
         876         876     166.134         171     100.729
         882         882     167.132         172      100.73
         888         888     168.125         173     100.732
         894         894     169.102         174     100.735
         900         900     170.117         175     100.736
         906         906     171.105         176     100.737
         912         912      172.11         177     100.739
         918         918       173.1         178     100.741
         924         924     174.096         179     100.743
         930         930     175.083         180     100.743
         936         936     176.082         181     100.743
         942         942     177.075         182     100.746
         948         948     178.068         183     100.749
         954         954     179.075         184     100.749
         960         960     180.062         185      100.75
         966         966     181.053         186     100.751
         972         972     182.045         187     100.754
         978         978     183.044         188     100.753
         984         984     184.038         189     100.755
         990         990     185.039         190     100.759
         996         996     186.029         191      100.76
        1002        1002     187.027         192     100.758
        1008        1008      188.03         193     100.762
        1014        1014     189.019         194     100.766
        1020        1020     190.041         195     100.766
        1026        1026     191.044         196     100.767
        1032        1032      192.03         197     100.768
        1038        1038     193.027         198      100.77
        1044        1044      194.03         199     100.767
        1050        1050     195.032         200     100.769
        1056        1056     196.028         201     100.771
        1062        1062     197.022         202     100.775
        1068        1068      198.02         203     100.777
        1074        1074     199.024         204     100.778
        1080        1080     200.031         205     100.779
        1086        1086      201.02         206      100.78
        1092        1092     202.034         207     100.778
        1098        1098      203.04         208      100.78
        1104        1104     204.031         209     100.781
        1110        1110     205.049         210     100.783
        1116        1116     206.044         211     100.783
        1122        1122     207.047         212     100.784
        1128        1128     208.061         213     100.785
        1134        1134     209.054         214     100.786
        1140        1140     210.054         215     100.787
        1146        1146     211.063         216     100.787
        1152        1152     212.065         217     100.787
        1158        1158     213.062         218     100.789
        1164        1164     214.062         219     100.791
        1170        1170      215.08         220     100.791
        1176        1176      216.08         221     100.792
        1182        1182     217.094         222     100.791
        1188        1188      218.09         223     100.792
        1194        1194     219.103         224     100.791
        1200        1200     220.113         225     100.794
        1206        1206     221.128         226     100.794
        1212        1212     222.133         227     100.794
        1218        1218     223.145         228     100.793
        1224        1224     224.157         229     100.793
        1230        1230     225.164         230     100.793
        1236        1236     226.174         231     100.792
        1242        1242     227.188         232     100.791
        1248        1248     228.197         233     100.791
        1254        1254     229.199         234      100.79
        1260        1260     230.224         235      100.79
        1266        1266     231.232         236     100.786
        1272        1272     232.245         237     100.785
        1278        1278     233.261         238     100.782
        1284        1284     234.265         239      100.78
        1290        1290     235.284         240     100.775
        1296        1296     236.299         241     100.774
        1302        1302     237.303         242     100.771
        1308        1308     238.307         243     100.764
        1314        1314     239.319         244     100.759
        1320        1320     240.326         245     100.753
        1326        1326     241.332         246     100.745
        1332        1332     242.349         247     100.735
        1338        1338     243.341         248     100.726
        1344        1344     244.351         249     100.714
        1350        1350     245.355         250     100.701
        1356        1356      246.36         251     100.686
        1362        1362     247.363         252     100.667
        1368        1368     248.365         253     100.649
        1374        1374     249.379         254     100.626
        1380        1380     250.374         255     100.601
        1386        1386     251.384         256     100.571
        1392        1392      252.38         257     100.534
        1398        1398     253.381         258     100.495
        1404        1404     254.388         259     100.448
        1410        1410     255.376         260     100.393
        1416        1416     256.369         261     100.327
        1422        1422     257.367         262     100.249
        1428        1428     258.355         263     100.158
        1434        1434     259.328         264     100.047
        1440        1440     260.312         265     99.9183
        1446        1446     261.287         266     99.7675
        1452        1452     262.258         267      99.587
        1458        1458     263.211         268     99.3679
        1464        1464     264.159         269     99.0965
        1470        1470     265.096         270     98.7485
        1476        1476     265.994         271     98.3183
        1482        1482     266.867         272     97.7572
        1488        1488     267.709         273     97.0464
        1494        1494     268.522         274     96.1157
        1500        1500     269.353         275     94.9953
        1506        1506     270.123         276     93.7361
        1512        1512     270.884         277      92.126
        1518        1518      271.66         278     90.3324
        1524        1524     272.385         279      88.397
        1530        1530     273.114         280     86.0938
        1536        1536     273.885         281     83.6008
        1542        1542     274.688         282     81.1633
        1548        1548     275.453         283     78.5726
        1554        1554     276.115         284     75.7302
        1560        1560     276.772         285     72.3769
        1566        1566     277.502         286     68.8218
        1572        1572     278.207         287     65.2743
        1578        1578     278.943         288     61.5549
        1584        1584     279.656         289     57.5563
        1590        1590     280.344         290     53.2787
        1596        1596     281.007         291     48.5742
        1602        1602     281.737         292     43.7218
        1608        1608      282.48         293     38.7742
        1614        1614     283.195         294     33.6322
        1620        1620     284.058         295      28.352
        1626        1626     284.839         296     23.0608
        1632        1632     285.748         297      17.594
        1638        1638     286.749         298     12.3142
        1644        1644     288.076         299     7.30109
        1650        1650     290.013         300     3.51851
        1656        1656     292.053         301      2.1059
        1662        1662      293.88         302     1.93518
        1668        1668      295.55         303     1.89546
        1674        1674     297.123         304     1.87472
        1680        1680     298.605         305     1.86098
        1686        1686     300.019         306     1.85107
        1692        1692     301.381         307     1.84611
        1698        1698     302.687         308     1.84173
        1704        1704     303.954         309      1.8337
        1710        1710     305.186         310      1.8312
        1716        1716     306.377         311     1.82621
        1722        1722     307.552         312     1.82225
        1728        1728     308.712         313     1.81705
        1734        1734     309.858         314     1.81236
        1740        1740     310.989         315      1.8088
        1746        1746     312.092         316     1.80673
        1752        1752     313.199         317     1.80148
        1758        1758     314.285         318     1.79921
        1764        1764     315.377         319     1.79526
        1770        1770     316.447         320     1.79206
        1776        1776     317.518         321     1.78797
        1782        1782     318.566         322     1.78494
        1788        1788      319.64         323     1.78111
        1794        1794     320.692         324     1.77672
        1800        1800     321.736         325     1.77424
        1806        1806      322.78         326     1.77111
        1812        1812      323.82         327     1.76842
        1818        1818     324.875         328     1.76583
        1824        1824     325.901         329     1.76298
        1830        1830     326.945         330     1.75865
        1836        1836     327.979         331     1.75856
        1842        1842      329.01         332     1.75237
        1848        1848     330.054         333     1.74881
        1854        1854     331.079         334     1.75015
        1860        1860       332.1         335     1.74728
        1866        1866     333.134         336     1.74442
        1872        1872     334.162         337     1.74136
        1878        1878     335.178         338     1.73817
        1884        1884     336.199         339     1.73507
        1890        1890     337.225         340     1.73295
        1896        1896     338.241         341     1.73099
        1902        1902     339.262         342     1.72854
        1908        1908     340.286         343     1.72454
        1914        1914       341.3         344     1.72199
        1920        1920     342.323         345     1.71851
        1926        1926     343.329         346     1.71613
        1932        1932     344.338         347     1.71385
        1938        1938     345.361         348     1.71098
        1944        1944      346.38         349     1.70848
